# COSI2 B0 scan
# time 2024-09-07 02:19:51.616675
# MAGNET CENTER IN LAB: x 243.000 mm, y 163.970 mm, z 277.220 mm
# MAGNET AXES WRT LAB: alpha 90.00 deg, beta 0.00 deg, gamma -90.00 deg
# path: /home/cosi/cosi-measure/Software/COSI2/data/240905/sphere_superslow_WITH_ONE_RING_INSTALLED_20pts_R120_240907_01AM
# X[mm],Y[mm],Z[mm],B0_x[mT],B0_y[mT],B0_z[mT],B0_abs[mT]
257.040,163.970,396.400,-47.2520,-2.0600,-0.8400,47.3050
256.360,168.310,396.400,-47.2530,-2.0500,-0.8400,47.3050
254.360,172.220,396.400,-47.2560,-2.0600,-0.8400,47.3090
251.250,175.330,396.400,-47.2560,-2.0600,-0.8400,47.3080
247.340,177.330,396.400,-47.2530,-2.0400,-0.8500,47.3050
243.000,178.010,396.400,-47.2410,-2.0300,-0.8300,47.2920
238.660,177.330,396.400,-47.2350,-2.0300,-0.8300,47.2860
234.750,175.330,396.400,-47.2120,-2.0100,-0.8300,47.2620
231.640,172.220,396.400,-47.1930,-2.0000,-0.8400,47.2440
229.640,168.310,396.400,-47.1850,-1.9900,-0.8400,47.2350
228.960,163.970,396.400,-47.1760,-1.9900,-0.8600,47.2260
229.640,159.630,396.400,-47.1680,-1.9900,-0.8500,47.2180
231.640,155.720,396.400,-47.1710,-2.0000,-0.8500,47.2200
234.750,152.610,396.400,-47.1730,-2.0000,-0.8600,47.2230
238.660,150.610,396.400,-47.1790,-2.0200,-0.8700,47.2300
243.000,149.930,396.400,-47.1820,-2.0200,-0.8700,47.2330
247.340,150.610,396.400,-47.1950,-2.0400,-0.8600,47.2470
251.250,152.610,396.400,-47.2040,-2.0600,-0.8800,47.2570
254.360,155.720,396.400,-47.2130,-2.0600,-0.8700,47.2660
256.360,159.630,396.400,-47.2260,-2.0700,-0.8600,47.2770
274.920,163.970,392.900,-47.2350,-2.0700,-0.8600,47.2880
273.360,173.830,392.900,-47.2470,-2.0700,-0.8500,47.3000
268.820,182.730,392.900,-47.3020,-2.0500,-0.8400,47.3500
261.760,189.790,392.900,-47.3120,-2.0300,-0.8100,47.3640
252.860,194.330,392.900,-47.2940,-2.0200,-0.8000,47.3460
243.000,195.890,392.900,-47.2720,-2.0100,-0.7800,47.3210
233.140,194.330,392.900,-47.2390,-1.9900,-0.7900,47.2930
224.240,189.790,392.900,-47.2030,-1.9800,-0.7900,47.2510
217.180,182.730,392.900,-47.1710,-1.9400,-0.8000,47.2170
212.640,173.830,392.900,-47.1520,-1.9200,-0.8200,47.1980
211.080,163.970,392.900,-47.1390,-1.9100,-0.8500,47.1850
212.640,154.110,392.900,-47.1440,-1.9200,-0.8700,47.1910
217.180,145.210,392.900,-47.1450,-1.9400,-0.8800,47.1930
224.240,138.150,392.900,-47.1510,-1.9700,-0.8800,47.2000
233.140,133.610,392.900,-47.1630,-2.0000,-0.8700,47.2130
243.000,132.050,392.900,-47.1780,-2.0300,-0.8600,47.2300
252.860,133.610,392.900,-47.1940,-2.0600,-0.8500,47.2460
261.760,138.150,392.900,-47.2170,-2.0800,-0.8500,47.2710
268.820,145.210,392.900,-47.2350,-2.0900,-0.8500,47.2890
273.360,154.110,392.900,-47.2590,-2.1000,-0.8500,47.3130
292.160,163.970,386.690,-47.2790,-2.1000,-0.8600,47.3330
289.750,179.160,386.690,-47.3070,-2.0700,-0.8500,47.3600
282.770,192.870,386.690,-47.3650,-2.0400,-0.8200,47.4160
271.900,203.740,386.690,-47.3670,-2.0100,-0.7700,47.4160
258.190,210.720,386.690,-47.3350,-2.0000,-0.7400,47.3830
243.000,213.130,386.690,-47.2930,-1.9800,-0.7200,47.3450
227.810,210.720,386.690,-47.2440,-1.9700,-0.7200,47.2900
214.100,203.740,386.690,-47.1890,-1.9400,-0.7300,47.2380
203.230,192.870,386.690,-47.1640,-1.9000,-0.7500,47.2080
196.250,179.160,386.690,-47.1500,-1.8700,-0.7900,47.1940
193.840,163.970,386.690,-47.1370,-1.8200,-0.8200,47.1790
196.250,148.780,386.690,-47.1340,-1.8400,-0.8700,47.1790
203.230,135.070,386.690,-47.1470,-1.8700,-0.8700,47.1920
214.100,124.200,386.690,-47.1600,-1.9100,-0.8700,47.2070
227.810,117.220,386.690,-47.1800,-1.9600,-0.8600,47.2280
243.000,114.810,386.690,-47.1970,-2.0100,-0.8400,47.2480
258.190,117.220,386.690,-47.2140,-2.0700,-0.8400,47.2670
271.900,124.200,386.690,-47.2300,-2.0900,-0.8300,47.2840
282.770,135.070,386.690,-47.2570,-2.1000,-0.8300,47.3110
289.750,148.780,386.690,-47.2910,-2.1100,-0.8400,47.3450
308.270,163.970,377.910,-47.3200,-2.1000,-0.8400,47.3740
305.080,184.140,377.910,-47.3530,-2.0700,-0.8400,47.4060
295.810,202.340,377.910,-47.4140,-2.0200,-0.8000,47.4630
281.370,216.780,377.910,-47.4070,-2.0000,-0.7300,47.4560
263.170,226.050,377.910,-47.3660,-1.9900,-0.6800,47.4120
243.000,229.240,377.910,-47.3040,-1.9700,-0.6500,47.3520
222.830,226.050,377.910,-47.2340,-1.9600,-0.6500,47.2790
204.630,216.780,377.910,-47.1780,-1.9400,-0.6800,47.2220
190.190,202.340,377.910,-47.1640,-1.9000,-0.7300,47.2080
180.920,184.140,377.910,-47.1770,-1.8400,-0.7500,47.2190
177.730,163.970,377.910,-47.1740,-1.7700,-0.7700,47.2150
180.920,143.800,377.910,-47.1730,-1.7400,-0.8500,47.2130
190.190,125.600,377.910,-47.1960,-1.8000,-0.8700,47.2360
204.630,111.160,377.910,-47.2020,-1.8500,-0.8600,47.2460
222.830,101.890,377.910,-47.2160,-1.9200,-0.8500,47.2600
243.000,98.700,377.910,-47.2270,-2.0100,-0.8300,47.2770
263.170,101.890,377.910,-47.2290,-2.0600,-0.7900,47.2810
281.370,111.160,377.910,-47.2330,-2.0800,-0.8100,47.2860
295.810,125.600,377.910,-47.2700,-2.1000,-0.8200,47.3240
305.080,143.800,377.910,-47.3200,-2.1000,-0.8300,47.3730
322.870,163.970,366.780,-47.3570,-2.1000,-0.8300,47.4110
318.960,188.650,366.780,-47.3950,-2.0700,-0.8400,47.4450
307.620,210.920,366.780,-47.4590,-2.0100,-0.7800,47.5090
289.950,228.590,366.780,-47.4450,-2.0000,-0.7000,47.4930
267.680,239.930,366.780,-47.4000,-1.9800,-0.6300,47.4480
243.000,243.840,366.780,-47.3090,-1.9800,-0.5700,47.3550
218.320,239.930,366.780,-47.2130,-1.9800,-0.5900,47.2590
196.050,228.590,366.780,-47.1650,-1.9500,-0.6600,47.2070
178.380,210.920,366.780,-47.1520,-1.8800,-0.7200,47.1960
167.040,188.650,366.780,-47.2030,-1.8400,-0.7600,47.2440
163.130,163.970,366.780,-47.2430,-1.7600,-0.7500,47.2810
167.040,139.290,366.780,-47.2430,-1.7000,-0.8200,47.2810
178.380,117.020,366.780,-47.2790,-1.7400,-0.8600,47.3190
196.050,99.350,366.780,-47.2770,-1.8100,-0.8500,47.3180
218.320,88.010,366.780,-47.2830,-1.9200,-0.8300,47.3310
243.000,84.100,366.780,-47.2700,-2.0000,-0.7500,47.3190
267.680,88.010,366.780,-47.2290,-2.0300,-0.7400,47.2790
289.950,99.350,366.780,-47.2260,-2.0700,-0.7700,47.2770
307.620,117.020,366.780,-47.2630,-2.1000,-0.8200,47.3170
318.960,139.290,366.780,-47.3360,-2.0800,-0.8600,47.3890
335.600,163.970,353.550,-47.4020,-2.0800,-0.8200,47.4520
331.070,192.580,353.550,-47.4310,-2.0700,-0.8100,47.4830
317.910,218.400,353.550,-47.4950,-2.0000,-0.7500,47.5430
297.430,238.880,353.550,-47.4780,-1.9900,-0.6700,47.5260
271.610,252.040,353.550,-47.4330,-1.9700,-0.5600,47.4770
243.000,256.570,353.550,-47.2880,-2.0000,-0.5100,47.3330
214.390,252.040,353.550,-47.1940,-2.0200,-0.5900,47.2400
188.570,238.880,353.550,-47.1620,-1.9600,-0.6400,47.2040
168.090,218.400,353.550,-47.1560,-1.8800,-0.7200,47.1990
154.930,192.580,353.550,-47.2270,-1.8400,-0.7800,47.2700
150.400,163.970,353.550,-47.3290,-1.7900,-0.7500,47.3680
154.930,135.360,353.550,-47.3370,-1.7000,-0.8000,47.3720
168.090,109.540,353.550,-47.3850,-1.7400,-0.8200,47.4240
188.570,89.060,353.550,-47.3610,-1.8100,-0.8500,47.4040
214.390,75.900,353.550,-47.3700,-1.9400,-0.7800,47.4160
243.000,71.370,353.550,-47.2840,-1.9700,-0.7100,47.3320
271.610,75.900,353.550,-47.2380,-1.9900,-0.7300,47.2850
297.430,89.060,353.550,-47.2360,-2.0500,-0.7600,47.2860
317.910,109.540,353.550,-47.2600,-2.1000,-0.7900,47.3130
331.070,135.360,353.550,-47.3310,-2.0800,-0.8700,47.3810
346.160,163.970,338.520,-47.4420,-2.0400,-0.8100,47.4920
341.110,195.850,338.520,-47.4660,-2.0300,-0.7900,47.5140
326.460,224.610,338.520,-47.5290,-1.9800,-0.7400,47.5760
303.640,247.430,338.520,-47.5110,-1.9900,-0.6400,47.5590
274.880,262.080,338.520,-47.4470,-1.9800,-0.4900,47.4910
243.000,267.130,338.520,-47.2570,-2.0300,-0.5000,47.3040
211.120,262.080,338.520,-47.1980,-2.0200,-0.5900,47.2450
182.360,247.430,338.520,-47.1780,-1.9500,-0.6400,47.2230
159.540,224.610,338.520,-47.1750,-1.8700,-0.6800,47.2170
144.890,195.850,338.520,-47.2320,-1.8400,-0.8000,47.2750
139.840,163.970,338.520,-47.4040,-1.8200,-0.7600,47.4450
144.890,132.090,338.520,-47.4180,-1.7500,-0.7800,47.4570
159.540,103.330,338.520,-47.4700,-1.8000,-0.8100,47.5110
182.360,80.510,338.520,-47.4300,-1.8600,-0.8200,47.4730
211.120,65.860,338.520,-47.4280,-1.9500,-0.7100,47.4730
243.000,60.810,338.520,-47.2850,-1.9200,-0.7000,47.3290
274.880,65.860,338.520,-47.2650,-1.9800,-0.7500,47.3110
303.640,80.510,338.520,-47.2640,-2.0400,-0.7500,47.3150
